Data File Name,Eukaryote Total RNA Nano_2020-10-22_10-58-16.xad
Data File Path,C:\Program Files (x86)\Agilent\2100 bioanalyzer\2100 expert\Data\2020-10-22
Date Created,"Thursday, October 22, 2020 5:58:16 PM"
Date Last Modified,"Thursday, October 22, 2020 6:29:55 PM"
Version Created,B.02.10.SI764
Version Last Modified,B.02.10.SI764
 
Assay Name,Eukaryote Total RNA Nano Series II
Assay Path,C:\Program Files (x86)\Agilent\2100 bioanalyzer\2100 expert\assays\RNA
Assay Title,Eukaryote Total RNA Nano
Assay Version,2.6
 
Number of Samples Run,7
 
Sample Name,RNA4_C_TP9
Number of Events,1060
 
Time,Value
17,-0.2313461
17.05,-0.2313461
17.1,-0.2313461
17.15,-0.2313461
17.2,-0.2313461
17.25,-0.2313461
17.3,-0.2302883
17.35,-0.2401167
17.4,-0.2424139
17.45,-0.2341213
17.5,-0.2290767
17.55,-0.2353981
17.6,-0.2255997
17.65,-0.2125166
17.7,-0.2121332
17.75,-0.224182
17.8,-0.2185876
17.85,-0.2322312
17.9,-0.2473659
17.95,-0.2449632
18,-0.256203
18.05,-0.2723993
18.1,-0.2748056
18.15,-0.2785691
18.2,-0.2583095
18.25,-0.2515414
18.3,-0.2207222
18.35,-0.1714381
18.4,-0.1488199
18.45,-0.1167403
18.5,-8.535399E-02
18.55,-0.0817505
18.6,-8.786681E-02
18.65,-8.781855E-02
18.7,-9.015596E-02
18.75,-8.701315E-02
18.8,-8.449145E-02
18.85,-6.082758E-02
18.9,-2.825716E-02
18.95,-5.792303E-04
19,2.822676E-02
19.05,5.690707E-02
19.1,4.814199E-02
19.15,4.855484E-02
19.2,3.086383E-02
19.25,0.0147562
19.3,-3.690896E-03
19.35,-2.407036E-02
19.4,-5.858731E-03
19.45,2.306779E-02
19.5,3.268982E-02
19.55,3.485057E-02
19.6,2.023003E-02
19.65,-2.631738E-03
19.7,-3.068064E-02
19.75,-4.794555E-02
19.8,-4.093061E-02
19.85,-4.343989E-02
19.9,-0.054688
19.95,-6.096512E-02
20,-8.163235E-02
20.05,-0.1029153
20.1,-0.1238032
20.15,-0.1440242
20.2,-0.1422924
20.25,-0.1345885
20.3,-0.1375545
20.35,-0.1401667
20.4,-0.1344914
20.45,-0.1169519
20.5,-0.1089881
20.55,-0.1112909
20.6,-0.1051679
20.65,-0.1092355
20.7,-0.1320909
20.75,-0.1527085
20.8,-0.1614649
20.85,-0.1732788
20.9,-0.1886417
20.95,-0.1924145
21,-0.1925346
21.05,-0.1949243
21.1,-0.1976677
21.15,-0.1949814
21.2,-0.2019551
21.25,-0.2133732
21.3,-0.2353646
21.35,-0.2466959
21.4,-0.2490792
21.45,-0.227562
21.5,-0.1863892
21.55,-0.1544075
21.6,-0.1514741
21.65,-0.1623362
21.7,-0.1782483
21.75,-0.1964799
21.8,-0.2014718
21.85,-0.1973334
21.9,-0.1723923
21.95,-0.1511944
22,-0.1468827
22.05,-0.1524681
22.1,-0.1839152
22.15,-9.309904E-02
22.2,0.7891136
22.25,3.0578
22.3,6.810105
22.35,11.31957
22.4,15.5702
22.45,18.32243
22.5,19.05051
22.55,17.86543
22.6,15.53825
22.65,12.77934
22.7,10.02832
22.75,7.488883
22.8,5.357474
22.85,3.586159
22.9,2.306132
22.95,1.376475
23,0.7440571
23.05,0.3598082
23.1,0.1223986
23.15,-6.636079E-03
23.2,-6.768627E-02
23.25,-0.1115377
23.3,-0.1269489
23.35,-0.1416652
23.4,-0.1308463
23.45,-0.1115334
23.5,-9.579627E-02
23.55,-9.776621E-02
23.6,-9.381086E-02
23.65,-7.953007E-02
23.7,-4.473731E-02
23.75,-1.551733E-02
23.8,1.635082E-02
23.85,3.045783E-02
23.9,2.380385E-02
23.95,0.013592
24,0.0206692
24.05,4.847933E-02
24.1,7.819558E-02
24.15,0.1130078
24.2,0.1670722
24.25,0.2205634
24.3,0.2648465
24.35,0.3208178
24.4,0.3817327
24.45,0.4438144
24.5,0.501717
24.55,0.5691822
24.6,0.6589164
24.65,0.7460498
24.7,0.8253024
24.75,0.8791242
24.8,0.9119129
24.85,0.9190932
24.9,0.8982102
24.95,0.8690149
25,0.847259
25.05,0.8289678
25.1,0.8259453
25.15,0.8498573
25.2,0.8936296
25.25,0.9472162
25.3,0.9948921
25.35,1.020741
25.4,1.030749
25.45,1.041839
25.5,1.056643
25.55,1.060832
25.6,1.050441
25.65,1.04678
25.7,1.03087
25.75,1.015507
25.8,1.01153
25.85,1.012385
25.9,1.028146
25.95,1.063186
26,1.122691
26.05,1.207938
26.1,1.30415
26.15,1.40346
26.2,1.457343
26.25,1.485343
26.3,1.473281
26.35,1.42612
26.4,1.358739
26.45,1.292897
26.5,1.233152
26.55,1.18784
26.6,1.162069
26.65,1.187636
26.7,1.22628
26.75,1.272428
26.8,1.338826
26.85,1.38912
26.9,1.420423
26.95,1.470246
27,1.523938
27.05,1.607459
27.1,1.683633
27.15,1.751993
27.2,1.83304
27.25,1.896335
27.3,1.952522
27.35,1.968687
27.4,1.946155
27.45,1.934765
27.5,1.897231
27.55,1.838955
27.6,1.787377
27.65,1.740961
27.7,1.698322
27.75,1.668606
27.8,1.656683
27.85,1.654488
27.9,1.647162
27.95,1.625605
28,1.621687
28.05,1.627222
28.1,1.623646
28.15,1.628707
28.2,1.636323
28.25,1.654092
28.3,1.672582
28.35,1.674324
28.4,1.688933
28.45,1.70945
28.5,1.728086
28.55,1.771356
28.6,1.846698
28.65,1.976933
28.7,2.214066
28.75,2.582823
28.8,3.060069
28.85,3.59182
28.9,4.145132
28.95,4.684194
29,5.208387
29.05,5.667319
29.1,5.994974
29.15,6.107131
29.2,6.014088
29.25,5.704175
29.3,5.236332
29.35,4.70583
29.4,4.173987
29.45,3.704762
29.5,3.272981
29.55,2.930698
29.6,2.687767
29.65,2.481608
29.7,2.311316
29.75,2.186478
29.8,2.106309
29.85,2.037406
29.9,1.973739
29.95,1.933403
30,1.895482
30.05,1.824522
30.1,1.725278
30.15,1.678531
30.2,1.640987
30.25,1.616581
30.3,1.646472
30.35,1.678934
30.4,1.684121
30.45,1.649059
30.5,1.618744
30.55,1.603435
30.6,1.611823
30.65,1.674431
30.7,1.748407
30.75,1.808805
30.8,1.845536
30.85,1.871048
30.9,1.900416
30.95,1.888011
31,1.85319
31.05,1.781079
31.1,1.718586
31.15,1.656541
31.2,1.617738
31.25,1.604534
31.3,1.584254
31.35,1.533832
31.4,1.482593
31.45,1.44414
31.5,1.427682
31.55,1.415666
31.6,1.420552
31.65,1.428734
31.7,1.415721
31.75,1.398567
31.8,1.388454
31.85,1.381626
31.9,1.383987
31.95,1.383886
32,1.379088
32.05,1.375826
32.1,1.360411
32.15,1.349705
32.2,1.3692
32.25,1.405616
32.3,1.425788
32.35,1.419318
32.4,1.397131
32.45,1.374454
32.5,1.347631
32.55,1.344313
32.6,1.358085
32.65,1.357235
32.7,1.332502
32.75,1.319152
32.8,1.328533
32.85,1.340057
32.9,1.346214
32.95,1.337631
33,1.313653
33.05,1.294903
33.1,1.296387
33.15,1.273246
33.2,1.246939
33.25,1.197796
33.3,1.142472
33.35,1.112792
33.4,1.11515
33.45,1.124614
33.5,1.130942
33.55,1.088356
33.6,1.063276
33.65,1.037596
33.7,1.029575
33.75,1.016653
33.8,0.9906918
33.85,0.9532591
33.9,0.9702816
33.95,0.9855815
34,0.9969577
34.05,1.002154
34.1,0.987492
34.15,0.9576116
34.2,0.9055244
34.25,0.8865523
34.3,0.8965303
34.35,0.9061528
34.4,0.89712
34.45,0.8834996
34.5,0.8556538
34.55,0.8050262
34.6,0.7629578
34.65,0.7749601
34.7,0.7900966
34.75,0.8229313
34.8,0.8475931
34.85,0.854973
34.9,0.8422662
34.95,0.7866828
35,0.7618635
35.05,0.7624184
35.1,0.7488467
35.15,0.7516112
35.2,0.7505717
35.25,0.7516255
35.3,0.762383
35.35,0.7653636
35.4,0.7734296
35.45,0.7731762
35.5,0.7457309
35.55,0.7331883
35.6,0.7378708
35.65,0.7489535
35.7,0.7562215
35.75,0.7400506
35.8,0.7142182
35.85,0.6897569
35.9,0.6669487
35.95,0.6518362
36,0.6551484
36.05,0.6568487
36.1,0.6501259
36.15,0.6435178
36.2,0.6537524
36.25,0.6605082
36.3,0.6456972
36.35,0.6210902
36.4,0.6095431
36.45,0.5778271
36.5,0.5384105
36.55,0.5100967
36.6,0.495804
36.65,0.4999171
36.7,0.4886472
36.75,0.4997107
36.8,0.5228185
36.85,0.52191
36.9,0.5005984
36.95,0.4769683
37,0.4598052
37.05,0.4409886
37.1,0.3952876
37.15,0.3864325
37.2,0.3596446
37.25,0.3294499
37.3,0.3017592
37.35,0.275776
37.4,0.2667413
37.45,0.2573982
37.5,0.2586315
37.55,0.2434718
37.6,0.2162547
37.65,0.1737407
37.7,0.1204339
37.75,9.505659E-02
37.8,9.925053E-02
37.85,0.1224292
37.9,0.1184756
37.95,9.117629E-02
38,6.743411E-02
38.05,3.898641E-02
38.1,2.947703E-02
38.15,1.547005E-02
38.2,2.839833E-03
38.25,-1.399264E-02
38.3,-4.023326E-02
38.35,-4.291134E-02
38.4,-4.767935E-02
38.45,-3.858721E-02
38.5,-3.056026E-02
38.55,-4.339724E-02
38.6,-5.198685E-02
38.65,-6.242635E-02
38.7,-6.456906E-02
38.75,-5.251313E-02
38.8,-3.518318E-02
38.85,-1.344988E-02
38.9,-8.188939E-03
38.95,-2.613426E-03
39,3.481389E-03
39.05,-5.573273E-03
39.1,-2.446987E-02
39.15,-4.847592E-02
39.2,-7.671721E-02
39.25,-0.1065079
39.3,-0.1256974
39.35,-0.1278825
39.4,-0.128459
39.45,-0.1295046
39.5,-0.1290148
39.55,-0.1350088
39.6,-0.1443096
39.65,-0.1506855
39.7,-0.1492897
39.75,-0.1438742
39.8,-0.1348707
39.85,-0.1222165
39.9,-0.1243523
39.95,-0.1368155
40,-0.1399374
40.05,-0.1427464
40.1,-0.1447153
40.15,-0.1517264
40.2,-0.1584488
40.25,-0.157992
40.3,-0.1569218
40.35,-0.1534907
40.4,-0.1476358
40.45,-0.1694626
40.5,-0.1865904
40.55,-0.2011342
40.6,-0.1978545
40.65,-0.1871198
40.7,-0.1826912
40.75,-0.182639
40.8,-0.1943084
40.85,-0.205796
40.9,-0.1983069
40.95,-0.1978485
41,-0.1936335
41.05,-0.1776882
41.1,-0.1671943
41.15,-0.1793607
41.2,-0.2094575
41.25,-0.202165
41.3,-0.2197862
41.35,-0.229225
41.4,-0.2260635
41.45,-0.2215229
41.5,-0.2286991
41.55,-0.2495643
41.6,-0.2453128
41.65,-0.2375845
41.7,-0.2248483
41.75,-0.2109021
41.8,-0.2090463
41.85,-0.2068932
41.9,-0.2141901
41.95,-0.2241828
42,-0.2367958
42.05,-0.2439243
42.1,-0.2369695
42.15,-0.2354296
42.2,-0.2308275
42.25,-0.2206288
42.3,-0.2089436
42.35,-0.1855239
42.4,-0.1619474
42.45,-0.1363329
42.5,-0.1142322
42.55,-8.764495E-02
42.6,-6.278478E-02
42.65,-3.689634E-02
42.7,-2.114849E-02
42.75,-1.538601E-02
42.8,-1.969146E-02
42.85,-2.429221E-02
42.9,-2.291681E-02
42.95,-6.861718E-03
43,2.270671E-02
43.05,6.766205E-02
43.1,0.1127961
43.15,0.1619795
43.2,0.2040786
43.25,0.2134928
43.3,0.2017861
43.35,0.1734766
43.4,0.1480184
43.45,0.1350714
43.5,0.1142253
43.55,9.539221E-02
43.6,9.749301E-02
43.65,8.725548E-02
43.7,6.638306E-02
43.75,3.755902E-02
43.8,2.920683E-02
43.85,4.439041E-02
43.9,3.747749E-02
43.95,2.158181E-02
44,1.697751E-02
44.05,-1.323752E-03
44.1,-2.437388E-02
44.15,-2.971636E-02
44.2,-2.004549E-02
44.25,1.721695E-03
44.3,-7.654103E-03
44.35,-4.004815E-02
44.4,-5.999909E-02
44.45,-7.549533E-02
44.5,-7.349776E-02
44.55,-7.476433E-02
44.6,-8.356179E-02
44.65,-7.384174E-02
44.7,-7.963079E-02
44.75,-9.896652E-02
44.8,-0.1002409
44.85,-9.444996E-02
44.9,-8.330011E-02
44.95,-9.782176E-02
45,-0.1100079
45.05,-0.1053369
45.1,-0.1206623
45.15,-0.1469725
45.2,-0.1532167
45.25,-0.1480239
45.3,-0.1334884
45.35,-0.1243551
45.4,-0.1238938
45.45,-0.1460734
45.5,-0.1642497
45.55,-0.1666648
45.6,-0.1681792
45.65,-0.1605798
45.7,-0.1560143
45.75,-0.1534628
45.8,-0.1580372
45.85,-0.1741036
45.9,-0.1724975
45.95,-0.177736
46,-0.1754872
46.05,-0.1785429
46.1,-0.1816674
46.15,-0.1809517
46.2,-0.1789559
46.25,-0.180705
46.3,-0.179651
46.35,-0.1865959
46.4,-0.2021637
46.45,-0.2303643
46.5,-0.2331397
46.55,-0.2223951
46.6,-0.2154917
46.65,-0.216806
46.7,-0.224491
46.75,-0.2374927
46.8,-0.251588
46.85,-0.2544062
46.9,-0.2419046
46.95,-0.229086
47,-0.2285947
47.05,-0.2286274
47.1,-0.2223462
47.15,-0.2088429
47.2,-0.1929609
47.25,-0.1855029
47.3,-0.1726046
47.35,-0.1494075
47.4,-0.1375232
47.45,-0.1470492
47.5,-0.162427
47.55,-0.1677046
47.6,-0.1624166
47.65,-0.1658021
47.7,-0.1601357
47.75,-0.1589603
47.8,-0.1617597
47.85,-0.1634371
47.9,-0.1489352
47.95,-0.1156283
48,-0.1058116
48.05,-0.1099434
48.1,-0.1133906
48.15,-0.1199325
48.2,-0.1233624
48.25,-0.122281
48.3,-9.479155E-02
48.35,-7.090005E-02
48.4,-6.778786E-02
48.45,-6.902708E-02
48.5,-7.464875E-02
48.55,-7.415865E-02
48.6,-0.0733158
48.65,-7.284764E-02
48.7,-3.813588E-02
48.75,-2.664466E-02
48.8,-1.357275E-02
48.85,-1.817257E-02
48.9,-2.642634E-02
48.95,-2.233601E-02
49,-2.513851E-02
49.05,-1.977232E-02
49.1,7.736061E-03
49.15,1.717955E-02
49.2,0.02993
49.25,2.634808E-02
49.3,0.0230925
49.35,4.130001E-02
49.4,2.471404E-02
49.45,6.074232E-03
49.5,-1.308026E-02
49.55,-4.008316E-02
49.6,-3.136509E-02
49.65,-1.994716E-02
49.7,1.985932E-03
49.75,2.910194E-02
49.8,2.301562E-02
49.85,1.074574E-02
49.9,-2.285768E-03
49.95,-4.992899E-03
50,2.010747E-02
50.05,3.212584E-02
50.1,3.406867E-02
50.15,3.211965E-02
50.2,1.234476E-02
50.25,-1.792306E-02
50.3,-4.703018E-02
50.35,-6.836244E-02
50.4,-8.087288E-02
50.45,-8.736073E-02
50.5,-8.099148E-02
50.55,-7.445703E-02
50.6,-8.176508E-02
50.65,-9.646528E-02
50.7,-0.1222579
50.75,-0.1435693
50.8,-0.1358249
50.85,-0.1215708
50.9,-0.1161615
50.95,-0.1044728
51,-9.295315E-02
51.05,-9.664916E-02
51.1,-0.1105985
51.15,-0.1147899
51.2,-0.1126578
51.25,-0.1185551
51.3,-0.1094351
51.35,-0.0632138
51.4,-3.022141E-02
51.45,-2.888306E-02
51.5,-3.969088E-02
51.55,-4.535959E-02
51.6,-7.098733E-02
51.65,-0.1002743
51.7,-0.1185222
51.75,-0.1206493
51.8,-0.1328589
51.85,-0.1457026
51.9,-0.153483
51.95,-0.1460635
52,-0.1401487
52.05,-0.1505509
52.1,-0.1423459
52.15,-0.1112246
52.2,-0.1003506
52.25,-9.595113E-02
52.3,-0.1031028
52.35,-9.677944E-02
52.4,-0.1011614
52.45,-9.716267E-02
52.5,-7.964028E-02
52.55,-0.0907437
52.6,-0.0852151
52.65,-8.742243E-02
52.7,-0.1131924
52.75,-0.1238823
52.8,-0.128431
52.85,-0.1360816
52.9,-0.1411717
52.95,-0.1358611
53,-0.1127586
53.05,-0.1010281
53.1,-8.909014E-02
53.15,-9.784444E-02
53.2,-0.1130397
53.25,-0.1250335
53.3,-0.1370876
53.35,-0.1472354
53.4,-0.1379325
53.45,-0.1283247
53.5,-0.1476138
53.55,-0.1841505
53.6,-0.1872275
53.65,-0.1849004
53.7,-0.1853184
53.75,-0.1738027
53.8,-0.1518821
53.85,-0.1573461
53.9,-0.1858439
53.95,-0.2014565
54,-0.2098381
54.05,-0.228955
54.1,-0.2335271
54.15,-0.2179114
54.2,-0.1913142
54.25,-0.1743114
54.3,-0.1579906
54.35,-0.134385
54.4,-0.1252187
54.45,-0.1347431
54.5,-0.1454782
54.55,-0.1594718
54.6,-0.1733591
54.65,-0.1773202
54.7,-0.1727117
54.75,-0.1537151
54.8,-0.1517084
54.85,-0.1587439
54.9,-0.1650449
54.95,-0.16563
55,-0.1673527
55.05,-0.1639218
55.1,-0.1756725
55.15,-0.1962285
55.2,-0.2089501
55.25,-0.213047
55.3,-0.2103286
55.35,-0.1958339
55.4,-0.1889112
55.45,-0.1764291
55.5,-0.1535417
55.55,-0.141225
55.6,-0.1079807
55.65,-9.331776E-02
55.7,-8.911482E-02
55.75,-0.1126153
55.8,-0.1505674
55.85,-0.1825965
55.9,-0.1985837
55.95,-0.1979487
56,-0.1625001
56.05,-0.1462382
56.1,-0.1426446
56.15,-0.15671
56.2,-0.1724388
56.25,-0.1822133
56.3,-0.1883446
56.35,-0.1796041
56.4,-0.1803375
56.45,-0.1890676
56.5,-0.1984718
56.55,-0.2046675
56.6,-0.2089384
56.65,-0.2019691
56.7,-0.1865145
56.75,-0.1800945
56.8,-0.1887368
56.85,-0.1911778
56.9,-0.2000298
56.95,-0.2220211
57,-0.2109345
57.05,-0.1797188
57.1,-0.17431
57.15,-0.1704706
57.2,-0.1623464
57.25,-0.1447633
57.3,-0.1457835
57.35,-0.1459263
57.4,-0.1257479
57.45,-0.1167007
57.5,-0.1215216
57.55,-0.1173828
57.6,-0.1135623
57.65,-0.1200037
57.7,-0.1189194
57.75,-0.1163354
57.8,-0.1220362
57.85,-0.1308092
57.9,-0.1285913
57.95,-0.1324078
58,-0.1377001
58.05,-0.1417143
58.1,-0.1434794
58.15,-0.1480343
58.2,-0.1581397
58.25,-0.1611494
58.3,-0.1650287
58.35,-0.1777786
58.4,-0.1792886
58.45,-0.1612626
58.5,-0.150407
58.55,-0.1417208
58.6,-0.1415509
58.65,-0.1489554
58.7,-0.1574632
58.75,-0.1652057
58.8,-0.160771
58.85,-0.1529642
58.9,-0.1624188
58.95,-0.1747487
59,-0.1854342
59.05,-0.2057242
59.1,-0.2091376
59.15,-0.1976723
59.2,-0.1823644
59.25,-0.1659202
59.3,-0.1565558
59.35,-0.1470917
59.4,-0.1403825
59.45,-0.1436402
59.5,-0.1400437
59.55,-0.1391637
59.6,-0.1585269
59.65,-0.1742429
59.7,-0.1682587
59.75,-0.1639198
59.8,-0.1579251
59.85,-0.1388562
59.9,-0.1366281
59.95,-0.1710128
60,-0.2011767
60.05,-0.2145648
60.1,-0.2101397
60.15,-0.2181158
60.2,-0.2095425
60.25,-0.1885169
60.3,-0.2056273
60.35,-0.2113782
60.4,-0.200457
60.45,-0.1611805
60.5,-0.1365585
60.55,-0.1204087
60.6,-0.1086914
60.65,-0.1296126
60.7,-0.1626482
60.75,-0.1730389
60.8,-0.1654467
60.85,-0.1376455
60.9,-0.1430554
60.95,-0.1311052
61,-0.1179168
61.05,-0.1249691
61.1,-0.1195322
61.15,-0.1157797
61.2,-0.1047077
61.25,-0.1098187
61.3,-0.1173943
61.35,-0.117028
61.4,-0.1136319
61.45,-0.1281286
61.5,-0.1453447
61.55,-0.1572004
61.6,-0.1638165
61.65,-0.1776116
61.7,-0.1831306
61.75,-0.1870959
61.8,-0.1934993
61.85,-0.2041464
61.9,-0.2139498
61.95,-0.2120297
62,-0.2066318
62.05,-0.1898199
62.1,-0.1642213
62.15,-0.1527275
62.2,-0.1627508
62.25,-0.178921
62.3,-0.1922403
62.35,-0.2026145
62.4,-0.2102461
62.45,-0.2005835
62.5,-0.1897421
62.55,-0.1946602
62.6,-0.1950477
62.65,-0.1817833
62.7,-0.1678976
62.75,-0.146369
62.8,-0.1136827
62.85,-8.416443E-02
62.9,-7.699297E-02
62.95,-8.057373E-02
63,-8.947701E-02
63.05,-9.343619E-02
63.1,-0.1036825
63.15,-0.1141201
63.2,-0.1249175
63.25,-0.1439742
63.3,-0.1374652
63.35,-0.1278579
63.4,-0.1282785
63.45,-0.1214851
63.5,-0.118342
63.55,-0.1237141
63.6,-0.1466546
63.65,-0.1512426
63.7,-0.1636163
63.75,-0.1837344
63.8,-0.1776595
63.85,-0.1794199
63.9,-0.1781003
63.95,-0.1808641
64,-0.1825431
64.05,-0.1483559
64.1,-0.1213579
64.15,-9.109212E-02
64.2,-6.495224E-02
64.25,-5.223161E-02
64.3,-4.481257E-02
64.35,-6.486402E-02
64.4,-9.109583E-02
64.45,-0.1153607
64.5,-0.1361073
64.55,-0.1462302
64.6,-0.1351452
64.65,-0.1293082
64.7,-0.1155904
64.75,-0.1112452
64.8,-0.1197273
64.85,-0.1384735
64.9,-0.1546909
64.95,-0.1706896
65,-0.1819827
65.05,-0.1828041
65.1,-0.1625385
65.15,-0.1592748
65.2,-0.1671565
65.25,-0.1752491
65.3,-0.1803502
65.35,-0.1786566
65.4,-0.1833973
65.45,-0.1723427
65.5,-0.1413684
65.55,-0.1233522
65.6,-0.1196625
65.65,-0.1288452
65.7,-0.1545874
65.75,-0.1761214
65.8,-0.1832821
65.85,-0.1657017
65.9,-0.140373
65.95,-0.1455728
66,-0.1622504
66.05,-0.1784061
66.1,-0.1918855
66.15,-0.1970228
66.2,-0.1900063
66.25,-0.1869277
66.3,-0.1857091
66.35,-0.1888198
66.4,-0.1644285
66.45,-0.1375048
66.5,-0.1304236
66.55,-0.1544013
66.6,-0.1738988
66.65,-0.1906691
66.7,-0.1871929
66.75,-0.1712102
66.8,-0.1533435
66.85,-0.1478503
66.9,-0.1626236
66.95,-0.1681033
67,-0.1601821
67.05,-0.1612367
67.1,-0.1476343
67.15,-0.1441811
67.2,-0.1362962
67.25,-0.1414988
67.3,-0.1565204
67.35,-0.1454747
67.4,-0.1452284
67.45,-0.1584338
67.5,-0.1540709
67.55,-0.1479202
67.6,-0.1722557
67.65,-0.2018578
67.7,-0.1978489
67.75,-0.1833407
67.8,-0.1589592
67.85,-0.1347837
67.9,-0.1037597
67.95,-0.1013341
68,-0.117193
68.05,-0.1224197
68.1,-0.1289653
68.15,-0.1282079
68.2,-0.1270258
68.25,-0.1372322
68.3,-0.1425921
68.35,-0.1724992
68.4,-0.188326
68.45,-0.1826378
68.5,-0.1626697
68.55,-0.1300373
68.6,-0.1124466
68.65,-0.1036336
68.7,-0.1031693
68.75,-0.1138811
68.8,-0.104707
68.85,-8.902092E-02
68.9,-8.792111E-02
68.95,-9.862078E-02
69,-0.1038788
69.05,-0.1005714
69.1,-9.890904E-02
69.15,-0.0967645
69.2,-7.916246E-02
69.25,-5.615445E-02
69.3,-3.042707E-02
69.35,-7.626324E-03
69.4,1.027341E-02
69.45,1.653264E-02
69.5,7.461316E-03
69.55,4.405458E-03
69.6,1.119753E-02
69.65,1.857762E-02
69.7,1.996521E-02
69.75,1.656218E-02
69.8,1.154036E-02
69.85,9.938827E-03
69.9,5.199505E-03
69.95,0.0048858
 
Alignment,On
